Micasense RedEdge Camera Quantum Efficiency
Wavelength_nm,QE_percent
392.00,49.160
393.00,49.705
394.00,50.249
395.00,50.794
396.00,51.338
397.00,51.883
398.00,52.426
399.00,52.956
400.00,53.485
401.00,53.758
402.00,54.021
403.00,54.285
404.00,54.548
405.00,54.812
406.00,55.075
407.00,55.339
408.00,55.602
409.00,55.866
410.00,56.144
411.00,56.470
412.00,56.797
413.00,57.124
414.00,57.451
415.00,57.778
416.00,58.124
417.00,58.513
418.00,58.903
419.00,59.293
420.00,59.683
421.00,59.947
422.00,60.140
423.00,60.334
424.00,60.527
425.00,60.720
426.00,60.913
427.00,61.107
428.00,61.300
429.00,61.493
430.00,61.686
431.00,61.880
432.00,62.045
433.00,62.192
434.00,62.340
435.00,62.488
436.00,62.636
437.00,62.784
438.00,62.931
439.00,63.079
440.00,63.227
441.00,63.375
442.00,63.523
443.00,63.670
444.00,63.818
445.00,63.982
446.00,64.147
447.00,64.312
448.00,64.477
449.00,64.643
450.00,64.808
451.00,64.973
452.00,65.213
453.00,65.483
454.00,65.744
455.00,65.961
456.00,66.177
457.00,66.393
458.00,66.609
459.00,66.825
460.00,66.991
461.00,67.133
462.00,67.274
463.00,67.416
464.00,67.557
465.00,67.699
466.00,67.840
467.00,67.982
468.00,68.123
469.00,68.265
470.00,68.369
471.00,68.436
472.00,68.503
473.00,68.570
474.00,68.637
475.00,68.703
476.00,68.770
477.00,68.837
478.00,68.903
479.00,68.960
480.00,69.016
481.00,69.072
482.00,69.129
483.00,69.185
484.00,69.241
485.00,69.298
486.00,69.354
487.00,69.414
488.00,69.500
489.00,69.586
490.00,69.672
491.00,69.758
492.00,69.844
493.00,69.930
494.00,70.015
495.00,70.101
496.00,70.187
497.00,70.273
498.00,70.359
499.00,70.445
500.00,70.531
501.00,70.566
502.00,70.601
503.00,70.636
504.00,70.670
505.00,70.705
506.00,70.740
507.00,70.775
508.00,70.797
509.00,70.815
510.00,70.834
511.00,70.852
512.00,70.871
513.00,70.889
514.00,70.907
515.00,70.926
516.00,70.944
517.00,70.963
518.00,70.973
519.00,70.979
520.00,70.984
521.00,70.990
522.00,70.996
523.00,71.001
524.00,71.007
525.00,71.013
526.00,71.018
527.00,71.024
528.00,71.030
529.00,71.029
530.00,71.004
531.00,70.979
532.00,70.915
533.00,70.830
534.00,70.745
535.00,70.660
536.00,70.575
537.00,70.490
538.00,70.405
539.00,70.320
540.00,70.235
541.00,70.150
542.00,70.065
543.00,69.963
544.00,69.853
545.00,69.742
546.00,69.631
547.00,69.520
548.00,69.409
549.00,69.298
550.00,69.188
551.00,69.086
552.00,69.034
553.00,68.981
554.00,68.929
555.00,68.876
556.00,68.823
557.00,68.769
558.00,68.710
559.00,68.651
560.00,68.592
561.00,68.533
562.00,68.489
563.00,68.444
564.00,68.400
565.00,68.355
566.00,68.345
567.00,68.345
568.00,68.346
569.00,68.346
570.00,68.346
571.00,68.346
572.00,68.296
573.00,68.179
574.00,68.061
575.00,67.944
576.00,67.826
577.00,67.708
578.00,67.589
579.00,67.437
580.00,67.285
581.00,67.134
582.00,66.982
583.00,66.830
584.00,66.678
585.00,66.526
586.00,66.375
587.00,66.223
588.00,66.071
589.00,65.919
590.00,65.767
591.00,65.616
592.00,65.464
593.00,65.312
594.00,65.154
595.00,64.995
596.00,64.836
597.00,64.677
598.00,64.517
599.00,64.358
600.00,64.199
601.00,64.040
602.00,63.881
603.00,63.721
604.00,63.562
605.00,63.403
606.00,63.244
607.00,63.085
608.00,62.925
609.00,62.766
610.00,62.580
611.00,62.383
612.00,62.186
613.00,61.990
614.00,61.793
615.00,61.608
616.00,61.430
617.00,61.252
618.00,61.074
619.00,60.896
620.00,60.718
621.00,60.540
622.00,60.362
623.00,60.185
624.00,60.007
625.00,59.829
626.00,59.651
627.00,59.473
628.00,59.295
629.00,59.117
630.00,58.939
631.00,58.761
632.00,58.583
633.00,58.405
634.00,58.244
635.00,58.083
636.00,57.921
637.00,57.760
638.00,57.598
639.00,57.437
640.00,57.276
641.00,57.114
642.00,56.960
643.00,56.877
644.00,56.793
645.00,56.709
646.00,56.626
647.00,56.542
648.00,56.459
649.00,56.375
650.00,56.292
651.00,56.208
652.00,56.107
653.00,55.974
654.00,55.841
655.00,55.708
656.00,55.576
657.00,55.443
658.00,55.310
659.00,55.177
660.00,55.044
661.00,54.908
662.00,54.772
663.00,54.636
664.00,54.500
665.00,54.363
666.00,54.227
667.00,54.091
668.00,53.955
669.00,53.819
670.00,53.682
671.00,53.546
672.00,53.286
673.00,53.009
674.00,52.731
675.00,52.454
676.00,52.176
677.00,51.899
678.00,51.622
679.00,51.344
680.00,51.067
681.00,50.790
682.00,50.512
683.00,50.235
684.00,49.958
685.00,49.680
686.00,49.403
687.00,49.125
688.00,48.848
689.00,48.603
690.00,48.388
691.00,48.173
692.00,47.959
693.00,47.744
694.00,47.529
695.00,47.314
696.00,47.100
697.00,46.885
698.00,46.667
699.00,46.435
700.00,46.203
701.00,45.971
702.00,45.740
703.00,45.508
704.00,45.276
705.00,45.044
706.00,44.812
707.00,44.581
708.00,44.349
709.00,44.117
710.00,43.912
711.00,43.765
712.00,43.617
713.00,43.470
714.00,43.322
715.00,43.174
716.00,43.017
717.00,42.845
718.00,42.672
719.00,42.500
720.00,42.327
721.00,42.155
722.00,41.982
723.00,41.810
724.00,41.617
725.00,41.418
726.00,41.220
727.00,41.021
728.00,40.822
729.00,40.624
730.00,40.425
731.00,40.226
732.00,40.027
733.00,39.828
734.00,39.591
735.00,39.355
736.00,39.118
737.00,38.882
738.00,38.646
739.00,38.409
740.00,38.173
741.00,37.936
742.00,37.700
743.00,37.463
744.00,37.227
745.00,36.990
746.00,36.754
747.00,36.517
748.00,36.281
749.00,36.044
750.00,35.803
751.00,35.510
752.00,35.217
753.00,35.011
754.00,34.809
755.00,34.607
756.00,34.405
757.00,34.203
758.00,34.001
759.00,33.799
760.00,33.597
761.00,33.394
762.00,33.192
763.00,32.990
764.00,32.788
765.00,32.592
766.00,32.414
767.00,32.235
768.00,32.057
769.00,31.878
770.00,31.700
771.00,31.521
772.00,31.343
773.00,31.165
774.00,30.986
775.00,30.808
776.00,30.629
777.00,30.451
778.00,30.272
779.00,30.094
780.00,29.915
781.00,29.737
782.00,29.558
783.00,29.383
784.00,29.260
785.00,29.137
786.00,29.014
787.00,28.891
788.00,28.769
789.00,28.646
790.00,28.523
791.00,28.378
792.00,28.203
793.00,28.028
794.00,27.854
795.00,27.679
796.00,27.504
797.00,27.329
798.00,27.154
799.00,26.980
800.00,26.805
801.00,26.630
802.00,26.455
803.00,26.280
804.00,26.106
805.00,25.931
806.00,25.756
807.00,25.581
808.00,25.406
809.00,25.231
810.00,25.057
811.00,24.882
812.00,24.701
813.00,24.518
814.00,24.335
815.00,24.152
816.00,23.969
817.00,23.786
818.00,23.603
819.00,23.420
820.00,23.236
821.00,23.053
822.00,22.870
823.00,22.687
824.00,22.504
825.00,22.321
826.00,22.138
827.00,21.954
828.00,21.771
829.00,21.588
830.00,21.405
831.00,21.222
832.00,21.039
833.00,20.856
834.00,20.672
835.00,20.491
836.00,20.310
837.00,20.129
838.00,19.948
839.00,19.767
840.00,19.586
841.00,19.405
842.00,19.223
843.00,19.042
844.00,18.861
845.00,18.680
846.00,18.499
847.00,18.318
848.00,18.137
849.00,17.956
850.00,17.775
851.00,17.594
852.00,17.413
853.00,17.232
854.00,17.051
855.00,16.870
856.00,16.689
857.00,16.527
858.00,16.401
859.00,16.276
860.00,16.150
861.00,16.024
862.00,15.898
863.00,15.773
864.00,15.647
865.00,15.521
866.00,15.396
867.00,15.270
868.00,15.144
869.00,14.993
870.00,14.839
871.00,14.685
872.00,14.531
873.00,14.377
874.00,14.223
875.00,14.069
876.00,13.915
877.00,13.761
878.00,13.607
879.00,13.452
880.00,13.297
881.00,13.142
882.00,12.987
883.00,12.831
884.00,12.676
885.00,12.521
886.00,12.366
887.00,12.211
888.00,12.055
889.00,11.900
890.00,11.745
891.00,11.590
892.00,11.435
893.00,11.279
894.00,11.124
895.00,10.988
896.00,10.862
897.00,10.737
898.00,10.611
899.00,10.485
900.00,10.360
901.00,10.234
902.00,10.108
903.00, 9.982
904.00, 9.857
905.00, 9.731
906.00, 9.612
907.00, 9.520
908.00, 9.428
909.00, 9.336
910.00, 9.243
911.00, 9.151
912.00, 9.059
913.00, 8.967
914.00, 8.875
915.00, 8.782
916.00, 8.690
917.00, 8.598
918.00, 8.506
919.00, 8.413
920.00, 8.321
921.00, 8.229
922.00, 8.137
923.00, 8.044
924.00, 7.952
925.00, 7.860
926.00, 7.768
927.00, 7.676
928.00, 7.583
929.00, 7.491
930.00, 7.405
931.00, 7.324
932.00, 7.244
933.00, 7.164
934.00, 7.083
935.00, 6.997
936.00, 6.910
937.00, 6.822
938.00, 6.735
939.00, 6.648
940.00, 6.560
941.00, 6.473
942.00, 6.385
943.00, 6.298
944.00, 6.211
945.00, 6.123
946.00, 6.036
947.00, 5.948
948.00, 5.861
949.00, 5.774
950.00, 5.686
951.00, 5.599
952.00, 5.511
953.00, 5.424
954.00, 5.336
955.00, 5.250
956.00, 5.182
957.00, 5.113
958.00, 5.044
959.00, 4.976
960.00, 4.907
961.00, 4.838
962.00, 4.769
963.00, 4.701
964.00, 4.632
965.00, 4.563
966.00, 4.494
967.00, 4.426
968.00, 4.357
969.00, 4.288
970.00, 4.220
971.00, 4.151
972.00, 4.082
973.00, 4.013
974.00, 3.945
975.00, 3.876
976.00, 3.807
977.00, 3.739
978.00, 3.670
979.00, 3.601
980.00, 3.532
981.00, 3.464
982.00, 3.395
983.00, 3.326
984.00, 3.258
985.00, 3.189
986.00, 3.120
987.00, 3.051
988.00, 2.983
989.00, 2.914
990.00, 2.845
991.00, 2.777
992.00, 2.708
993.00, 2.661
994.00, 2.619
995.00, 2.577
996.00, 2.536
997.00, 2.494
998.00, 2.452
999.00, 2.411
1000.00, 2.369
1001.00, 2.327
1002.00, 2.286
1003.00, 2.244
1004.00, 2.202
1005.00, 2.161
1006.00, 2.119
1007.00, 2.077
1008.00, 2.036
1009.00, 1.994
1010.00, 1.952
1011.00, 1.911
1012.00, 1.869
1013.00, 1.827
1014.00, 1.786
1015.00, 1.747
1016.00, 1.715
1017.00, 1.684
1018.00, 1.652
1019.00, 1.620
1020.00, 1.588
1021.00, 1.556
1022.00, 1.524
1023.00, 1.492
1024.00, 1.461
1025.00, 1.429
1026.00, 1.397
1027.00, 1.365
1028.00, 1.333
1029.00, 1.301
1030.00, 1.269
1031.00, 1.236
1032.00, 1.201
1033.00, 1.166
1034.00, 1.132
1035.00, 1.097
1036.00, 1.062
1037.00, 1.028
1038.00, 0.993
1039.00, 0.958
1040.00, 0.924
1041.00, 0.889
1042.00, 0.854
1043.00, 0.820
1044.00, 0.785
1045.00, 0.750
1046.00, 0.716
1047.00, 0.681
1048.00, 0.646
1049.00, 0.612
1050.00, 0.577
1051.00, 0.542
1052.00, 0.509
1053.00, 0.499
1054.00, 0.488
1055.00, 0.478
1056.00, 0.467
1057.00, 0.457
1058.00, 0.446
1059.00, 0.436
1060.00, 0.426
1061.00, 0.415
1062.00, 0.405
1063.00, 0.394
1064.00, 0.382
1065.00, 0.362
1066.00, 0.343
1067.00, 0.324
1068.00, 0.305
1069.00, 0.285
1070.00, 0.266
1071.00, 0.247
1072.00, 0.228
1073.00, 0.208
1074.00, 0.189
1075.00, 0.170
1076.00, 0.151
1077.00, 0.131
1078.00, 0.112
1079.00, 0.093
1080.00, 0.076
1081.00, 0.079
1082.00, 0.082
1083.00, 0.086
1084.00, 0.089
1085.00, 0.092
1086.00, 0.095
1087.00, 0.098
1088.00, 0.101
1089.00, 0.105
1090.00, 0.108
1091.00, 0.111
1092.00, 0.114
1093.00, 0.117
1094.00, 0.121
1095.00, 0.124
1096.00, 0.127
1097.00, 0.130
1098.00, 0.133
1099.00, 0.136